File: Data/Data_220201_NMC/Martin_0201_Channel_34_IV&Aux__Wb_1.CSV
Data_Point,Date_Time,Test_Time(s),Step_Time(s),Cycle_Index,Step_Index,Current(A),Voltage(V),Power(W),Charge_Capacity(Ah),Discharge_Capacity(Ah),Charge_Energy(Wh),Discharge_Energy(Wh),ACR(Ohm),dV/dt(V/s),Internal_Resistance(Ohm),dQ/dV(Ah/V),dV/dQ(V/Ah)
1,02/02/2022 17:30:48.598,20.002,20.001,1,1,0.00000,3.38513,0.00000,0.00000,0.00000,0.00000,0.00000,,-0.02266372,,,
10,02/02/2022 17:33:48.604,200.007,200.007,1,1,0.00000,3.39028,0.00000,0.00000,0.00000,0.00000,0.00000,,2.500977E-05,,,
19,02/02/2022 17:36:48.611,380.014,380.014,1,1,0.00000,3.38927,0.00000,0.00000,0.00000,0.00000,0.00000,,0.01869856,,0,0
28,02/02/2022 17:39:48.619,560.022,560.022,1,1,0.00000,3.38877,0.00000,0.00000,0.00000,0.00000,0.00000,,-0.01399898,,,
37,02/02/2022 17:42:48.629,740.032,740.032,1,1,0.00000,3.38272,0.00000,0.00000,0.00000,0.00000,0.00000,,-0.02070781,,0,0
46,02/02/2022 17:45:48.637,920.040,920.040,1,1,0.00000,3.37793,0.00000,0.00000,0.00000,0.00000,0.00000,,0.02604822,,,
55,02/02/2022 17:48:48.645,1100.048,1100.048,1,1,0.00000,3.37170,0.00000,0.00000,0.00000,0.00000,0.00000,,0.01751164,,0,0
64,02/02/2022 17:51:48.653,1280.056,1280.056,1,1,0.00000,3.36558,0.00000,0.00000,0.00000,0.00000,0.00000,,-0.02684915,,,
73,02/02/2022 17:54:48.665,1460.068,1460.068,1,1,0.00000,3.35692,0.00000,0.00000,0.00000,0.00000,0.00000,,-0.01443757,,0,
82,02/02/2022 17:57:48.677,1640.080,1640.080,1,1,0.00000,3.35380,0.00000,0.00000,0.00000,0.00000,0.00000,,-3.481313E-05,,,
91,02/02/2022 18:00:48.687,1820.090,1820.090,1,1,0.00000,3.34461,0.00000,0.00000,0.00000,0.00000,0.00000,,-0.02286598,,0,
100,02/02/2022 18:03:48.696,2000.100,2000.099,1,1,0.00000,3.33608,0.00000,0.00000,0.00000,0.00000,0.00000,,0.01357243,,,
109,02/02/2022 18:06:48.703,2180.106,2180.106,1,1,0.00000,3.32231,0.00000,0.00000,0.00000,0.00000,0.00000,,-0.02032216,,0,
118,02/02/2022 18:09:48.712,2360.115,2360.115,1,1,0.00000,3.31243,0.00000,0.00000,0.00000,0.00000,0.00000,,0.03293314,,,
127,02/02/2022 18:12:48.720,2540.123,2540.123,1,1,0.00000,3.30205,0.00000,0.00000,0.00000,0.00000,0.00000,,-0.02064463,,,
136,02/02/2022 18:15:48.730,2720.133,2720.133,1,1,0.00000,3.28954,0.00000,0.00000,0.00000,0.00000,0.00000,,-0.01974707,,,
145,02/02/2022 18:18:48.740,2900.143,2900.143,1,1,0.00000,3.27824,0.00000,0.00000,0.00000,0.00000,0.00000,,-0.01723331,,,
154,02/02/2022 18:21:48.748,3080.151,3080.151,1,1,0.00000,3.27048,0.00000,0.00000,0.00000,0.00000,0.00000,,-0.0001050714,,,
163,02/02/2022 18:24:48.757,3260.160,3260.160,1,1,0.00000,3.25834,0.00000,0.00000,0.00000,0.00000,0.00000,,-0.0146469,,,
172,02/02/2022 18:27:48.765,3440.169,3440.168,1,1,0.00000,3.25037,0.00000,0.00000,0.00000,0.00000,0.00000,,-0.01984782,,,
181,02/02/2022 18:30:48.773,3620.176,3620.176,1,1,0.00000,3.24280,0.00000,0.00000,0.00000,0.00000,0.00000,,-0.01413684,,,
190,02/02/2022 18:33:48.783,3800.187,3800.186,1,1,0.00000,3.23843,0.00000,0.00000,0.00000,0.00000,0.00000,,-0.0001281241,,,
199,02/02/2022 18:36:48.793,3980.196,3980.196,1,1,0.00000,3.23218,0.00000,0.00000,0.00000,0.00000,0.00000,,0.01731147,,,
208,02/02/2022 18:39:48.800,4160.204,4160.203,1,1,0.00000,3.22772,0.00000,0.00000,0.00000,0.00000,0.00000,,0.00157362,,,
217,02/02/2022 18:42:48.808,4340.211,4340.211,1,1,0.00000,3.22509,0.00000,0.00000,0.00000,0.00000,0.00000,,0.02020704,,,
226,02/02/2022 18:45:48.818,4520.221,4520.221,1,1,0.00000,3.22196,0.00000,0.00000,0.00000,0.00000,0.00000,,1.699039E-06,,,
235,02/02/2022 18:48:48.826,4700.229,4700.229,1,1,0.00000,3.22207,0.00000,0.00000,0.00000,0.00000,0.00000,,-2.513184E-05,,,
244,02/02/2022 18:51:48.831,4880.234,4880.234,1,1,0.00000,3.22165,0.00000,0.00000,0.00000,0.00000,0.00000,,0.009808515,,,
253,02/02/2022 18:54:48.839,5060.242,5060.242,1,1,0.00000,3.22076,0.00000,0.00000,0.00000,0.00000,0.00000,,-3.733965E-05,,,
262,02/02/2022 18:57:48.850,5240.253,5240.253,1,1,0.00000,3.22703,0.00000,0.00000,0.00000,0.00000,0.00000,,9.570027E-05,,,
271,02/02/2022 19:00:48.861,5420.264,5420.264,1,1,0.00000,3.22797,0.00000,0.00000,0.00000,0.00000,0.00000,,-0.01939086,,,
280,02/02/2022 19:03:48.870,5600.273,5600.273,1,1,0.00000,3.23067,0.00000,0.00000,0.00000,0.00000,0.00000,,-5.413126E-06,,,
289,02/02/2022 19:06:48.876,5780.279,5780.279,1,1,0.00000,3.23726,0.00000,0.00000,0.00000,0.00000,0.00000,,6.622738E-05,,,
298,02/02/2022 19:09:48.882,5960.285,5960.285,1,1,0.00000,3.24315,0.00000,0.00000,0.00000,0.00000,0.00000,,1.868819E-05,,,
307,02/02/2022 19:12:48.889,6140.293,6140.292,1,1,0.00000,3.24962,0.00000,0.00000,0.00000,0.00000,0.00000,,0.01841984,,,
316,02/02/2022 19:15:48.895,6320.298,6320.298,1,1,0.00000,3.26028,0.00000,0.00000,0.00000,0.00000,0.00000,,-0.02063742,,,
325,02/02/2022 19:18:48.904,6500.307,6500.307,1,1,0.00000,3.26720,0.00000,0.00000,0.00000,0.00000,0.00000,,-5.970343E-05,,,
334,02/02/2022 19:21:48.913,6680.316,6680.316,1,1,0.00000,3.27668,0.00000,0.00000,0.00000,0.00000,0.00000,,-0.02119,,,
343,02/02/2022 19:24:48.921,6860.324,6860.324,1,1,0.00000,3.28636,0.00000,0.00000,0.00000,0.00000,0.00000,,-5.852193E-05,,,
352,02/02/2022 19:27:48.929,7040.333,7040.332,1,1,0.00000,3.29567,0.00000,0.00000,0.00000,0.00000,0.00000,,-0.01360639,,,
361,02/02/2022 19:30:48.937,7220.340,7220.340,1,1,0.00000,3.31565,0.00000,0.00000,0.00000,0.00000,0.00000,,-0.01593864,,,
370,02/02/2022 19:33:48.947,7400.350,7400.350,1,1,0.00000,3.33161,0.00000,0.00000,0.00000,0.00000,0.00000,,0.0001370767,,0,
379,02/02/2022 19:36:48.955,7580.359,7580.358,1,1,0.00000,3.34858,0.00000,0.00000,0.00000,0.00000,0.00000,,0.01217275,,,
388,02/02/2022 19:39:48.964,7760.367,7760.367,1,1,0.00000,3.36491,0.00000,0.00000,0.00000,0.00000,0.00000,,-0.02787426,,0,
397,02/02/2022 19:42:48.973,7940.376,7940.376,1,1,0.00000,3.39111,0.00000,0.00000,0.00000,0.00000,0.00000,,-0.02026094,,,0
406,02/02/2022 19:45:48.981,8120.385,8120.384,1,1,0.00000,3.40535,0.00000,0.00000,0.00000,0.00000,0.00000,,-0.02125221,,0,
415,02/02/2022 19:48:48.991,8300.394,8300.394,1,1,0.00000,3.42626,0.00000,0.00000,0.00000,0.00000,0.00000,,0.0001636265,,,
424,02/02/2022 19:51:49.001,8480.404,8480.404,1,1,0.00000,3.44974,0.00000,0.00000,0.00000,0.00000,0.00000,,-0.01583413,,0,
433,02/02/2022 19:54:49.012,8660.415,8660.415,1,1,0.00000,3.47869,0.00000,0.00000,0.00000,0.00000,0.00000,,9.30926E-05,,,
442,02/02/2022 19:57:47.917,8839.320,8839.320,1,1,0.00000,3.50917,0.00000,0.00000,0.00000,0.00000,0.00000,,0.02030567,,0,
451,02/02/2022 20:00:47.391,9018.794,9018.794,1,1,0.00000,3.54231,0.00000,0.00000,0.00000,0.00000,0.00000,,0.01597976,,,
460,02/02/2022 20:03:47.163,9198.566,9198.566,1,1,0.00000,3.57416,0.00000,0.00000,0.00000,0.00000,0.00000,,0.01288463,,0,
469,02/02/2022 20:06:47.174,9378.577,9378.577,1,1,0.00000,3.60574,0.00000,0.00000,0.00000,0.00000,0.00000,,-0.01931981,,,
478,02/02/2022 20:09:47.184,9558.587,9558.587,1,1,0.00000,3.63958,0.00000,0.00000,0.00000,0.00000,0.00000,,-0.01852473,,0,
487,02/02/2022 20:12:36.564,9727.967,9727.967,1,1,0.00000,3.67697,0.00000,0.00000,0.00000,0.00000,0.00000,,0.01870765,,,
496,02/02/2022 20:15:35.473,9906.876,9906.876,1,1,0.00000,3.71795,0.00000,0.00000,0.00000,0.00000,0.00000,,-0.01928507,,,
505,02/02/2022 20:18:29.719,10081.122,10081.122,1,1,0.00000,3.75496,0.00000,0.00000,0.00000,0.00000,0.00000,,0.0003402889,,,
514,02/02/2022 20:21:25.933,10257.336,10257.336,1,1,0.00000,3.79702,0.00000,0.00000,0.00000,0.00000,0.00000,,-0.02157914,,,
523,02/02/2022 20:24:20.604,10432.007,10432.007,1,1,0.00000,3.83992,0.00000,0.00000,0.00000,0.00000,0.00000,,0.01590129,,,
532,02/02/2022 20:27:15.193,10606.596,10606.596,1,1,0.00000,3.88273,0.00000,0.00000,0.00000,0.00000,0.00000,,0.01351138,,,
541,02/02/2022 20:30:03.902,10775.305,10775.305,1,1,0.00000,3.92480,0.00000,0.00000,0.00000,0.00000,0.00000,,0.0008670203,,0,
550,02/02/2022 20:32:56.732,10948.135,10948.135,1,1,0.00000,3.96862,0.00000,0.00000,0.00000,0.00000,0.00000,,-0.02136163,,,
559,02/02/2022 20:35:56.011,11127.414,11127.414,1,1,0.00000,4.01563,0.00000,0.00000,0.00000,0.00000,0.00000,,0.01313763,,,
568,02/02/2022 20:38:48.339,11299.742,11299.742,1,1,0.00000,4.07136,0.00000,0.00000,0.00000,0.00000,0.00000,,0.0184194,,,
577,02/02/2022 20:41:47.083,11478.486,11478.486,1,1,0.00000,4.12715,0.00000,0.00000,0.00000,0.00000,0.00000,,0.02114429,,,
586,02/02/2022 20:44:45.004,11656.407,11656.407,1,1,0.00000,4.18058,0.00000,0.00000,0.00000,0.00000,0.00000,,0.01479003,,,
595,02/02/2022 20:47:37.507,11828.910,11828.910,1,1,0.00000,4.23167,0.00000,0.00000,0.00000,0.00000,0.00000,,0.0004213595,,,
604,02/02/2022 20:50:21.529,11992.932,11992.932,1,1,0.00000,4.28359,0.00000,0.00000,0.00000,0.00000,0.00000,,-0.02760206,,0,
613,02/02/2022 20:53:17.297,12168.700,12168.700,1,1,0.00000,4.33468,0.00000,0.00000,0.00000,0.00000,0.00000,,-0.01109897,,,
622,02/02/2022 20:56:11.762,12343.165,12343.165,1,1,0.00000,4.38394,0.00000,0.00000,0.00000,0.00000,0.00000,,0.0149228,,0,
631,02/02/2022 20:58:58.507,12509.910,12509.910,1,1,0.00000,4.43811,0.00000,0.00000,0.00000,0.00000,0.00000,,0.0003259594,,,
640,02/02/2022 21:01:43.090,12674.493,12674.493,1,1,0.00000,4.49563,0.00000,0.00000,0.00000,0.00000,0.00000,,0.0002126373,,,
649,02/02/2022 21:04:28.254,12839.657,12839.657,1,1,0.00000,4.55731,0.00000,0.00000,0.00000,0.00000,0.00000,,0.01246573,,0,
658,02/02/2022 21:07:22.134,13013.537,13013.537,1,1,0.00000,4.61226,0.00000,0.00000,0.00000,0.00000,0.00000,,0.01233187,,,
667,02/02/2022 21:10:14.255,13185.658,13185.658,1,1,0.00000,4.67230,0.00000,0.00000,0.00000,0.00000,0.00000,,-0.02754222,,,
676,02/02/2022 21:12:56.807,13348.210,13348.210,1,1,0.00000,4.73121,0.00000,0.00000,0.00000,0.00000,0.00000,,-0.0089508,,,
685,02/02/2022 21:15:33.412,13504.815,13504.815,1,1,0.00000,4.77923,0.00000,0.00000,0.00000,0.00000,0.00000,,0.02745901,,,
694,02/02/2022 21:18:25.232,13676.635,13676.635,1,1,0.00000,4.83656,0.00000,0.00000,0.00000,0.00000,0.00000,,0.0105294,,0,
703,02/02/2022 21:21:17.930,13849.333,13849.333,1,1,0.00000,4.89935,0.00000,0.00000,0.00000,0.00000,0.00000,,0.0005111141,,,
712,02/02/2022 21:24:03.117,14014.521,14014.520,1,1,0.00000,4.95861,0.00000,0.00000,0.00000,0.00000,0.00000,,0.0001190515,,,
718,02/02/2022 21:25:53.865,14125.269,14125.268,1,1,0.00000,5.00036,0.00000,0.00000,0.00000,0.00000,0.00000,,-0.01589755,0,0,0