File: Data/Data_220201_NMC/Martin_0201_Channel_33_IV&Aux__Wb_1.CSV
Data_Point,Date_Time,Test_Time(s),Step_Time(s),Cycle_Index,Step_Index,Current(A),Voltage(V),Power(W),Charge_Capacity(Ah),Discharge_Capacity(Ah),Charge_Energy(Wh),Discharge_Energy(Wh),ACR(Ohm),dV/dt(V/s),Internal_Resistance(Ohm),dQ/dV(Ah/V),dV/dQ(V/Ah)
1,02/02/2022 17:30:48.569,20.001,20.001,1,1,0.00000,3.34519,0.00000,0.00000,0.00000,0.00000,0.00000,,4.123843E-05,,,
22,02/02/2022 17:37:48.582,440.014,440.014,1,1,0.00000,3.36170,0.00000,0.00000,0.00000,0.00000,0.00000,,0.0002555911,,,
43,02/02/2022 17:44:48.598,860.029,860.029,1,1,0.00000,3.37079,0.00000,0.00000,0.00000,0.00000,0.00000,,0.0001349382,,0,
64,02/02/2022 17:51:48.617,1280.048,1280.048,1,1,0.00000,3.37623,0.00000,0.00000,0.00000,0.00000,0.00000,,-8.653244E-06,,,
85,02/02/2022 17:58:48.639,1700.071,1700.071,1,1,0.00000,3.38230,0.00000,0.00000,0.00000,0.00000,0.00000,,-6.22671E-05,,0,
106,02/02/2022 18:05:48.661,2120.092,2120.092,1,1,0.00000,3.38599,0.00000,0.00000,0.00000,0.00000,0.00000,,4.737512E-05,,,
127,02/02/2022 18:09:56.195,2367.627,2367.627,1,1,0.00000,3.38745,0.00000,0.00000,0.00000,0.00000,0.00000,,3.018782E-05,,,
148,02/02/2022 18:16:56.220,2787.652,2787.652,1,1,0.00000,3.38859,0.00000,0.00000,0.00000,0.00000,0.00000,,-5.721035E-05,,0,
169,02/02/2022 18:23:56.240,3207.672,3207.672,1,1,0.00000,3.39012,0.00000,0.00000,0.00000,0.00000,0.00000,,5.2114E-05,,,
190,02/02/2022 18:28:32.500,3483.932,3483.932,1,1,0.00000,3.39143,0.00000,0.00000,0.00000,0.00000,0.00000,,1.493561E-05,,,
211,02/02/2022 18:35:32.517,3903.948,3903.948,1,1,0.00000,3.39309,0.00000,0.00000,0.00000,0.00000,0.00000,,-6.326322E-05,,,
232,02/02/2022 18:42:32.536,4323.968,4323.968,1,1,0.00000,3.39398,0.00000,0.00000,0.00000,0.00000,0.00000,,-1.971675E-05,,,
253,02/02/2022 18:49:32.556,4743.988,4743.988,1,1,0.00000,3.39502,0.00000,0.00000,0.00000,0.00000,0.00000,,-5.851805E-05,,,
274,02/02/2022 18:56:32.575,5164.007,5164.007,1,1,0.00000,3.39652,0.00000,0.00000,0.00000,0.00000,0.00000,,-1.604195E-05,,,
295,02/02/2022 19:03:32.593,5584.025,5584.025,1,1,0.00000,3.39692,0.00000,0.00000,0.00000,0.00000,0.00000,,6.282492E-05,,0,
316,02/02/2022 19:10:32.613,6004.045,6004.045,1,1,0.00000,3.39756,0.00000,0.00000,0.00000,0.00000,0.00000,,5.266976E-05,,,
337,02/02/2022 19:17:32.638,6424.070,6424.070,1,1,0.00000,3.39800,0.00000,0.00000,0.00000,0.00000,0.00000,,1.873018E-05,,0,
358,02/02/2022 19:24:32.661,6844.093,6844.093,1,1,0.00000,3.39805,0.00000,0.00000,0.00000,0.00000,0.00000,,7.71718E-05,,,
379,02/02/2022 19:31:32.682,7264.114,7264.114,1,1,0.00000,3.39907,0.00000,0.00000,0.00000,0.00000,0.00000,,4.781016E-05,,0,
400,02/02/2022 19:38:32.701,7684.133,7684.133,1,1,0.00000,3.39964,0.00000,0.00000,0.00000,0.00000,0.00000,,-5.270971E-05,,,
421,02/02/2022 19:45:32.726,8104.158,8104.158,1,1,0.00000,3.40019,0.00000,0.00000,0.00000,0.00000,0.00000,,-4.314518E-05,,,
442,02/02/2022 19:52:32.747,8524.179,8524.179,1,1,0.00000,3.39975,0.00000,0.00000,0.00000,0.00000,0.00000,,-6.871228E-05,,,
463,02/02/2022 19:59:32.772,8944.204,8944.204,1,1,0.00000,3.39995,0.00000,0.00000,0.00000,0.00000,0.00000,,-5.847903E-05,,,
484,02/02/2022 20:06:32.792,9364.223,9364.223,1,1,0.00000,3.39955,0.00000,0.00000,0.00000,0.00000,0.00000,,2.173189E-06,,,
505,02/02/2022 20:13:32.812,9784.244,9784.244,1,1,0.00000,3.39650,0.00000,0.00000,0.00000,0.00000,0.00000,,2.011188E-05,,,
526,02/02/2022 20:20:32.836,10204.268,10204.268,1,1,0.00000,3.40062,0.00000,0.00000,0.00000,0.00000,0.00000,,0.0001375223,,,
547,02/02/2022 20:27:32.857,10624.288,10624.288,1,1,0.00000,3.40188,0.00000,0.00000,0.00000,0.00000,0.00000,,-7.831837E-05,,,
568,02/02/2022 20:34:32.871,11044.303,11044.303,1,1,0.00000,3.40058,0.00000,0.00000,0.00000,0.00000,0.00000,,9.706507E-05,,,
589,02/02/2022 20:41:32.895,11464.327,11464.327,1,1,0.00000,3.40145,0.00000,0.00000,0.00000,0.00000,0.00000,,-1.750289E-05,,,
610,02/02/2022 20:48:32.920,11884.352,11884.352,1,1,0.00000,3.40233,0.00000,0.00000,0.00000,0.00000,0.00000,,9.681211E-06,,,
631,02/02/2022 20:55:32.939,12304.371,12304.371,1,1,0.00000,3.39500,0.00000,0.00000,0.00000,0.00000,0.00000,,1.434233E-05,,,
652,02/02/2022 21:02:32.961,12724.393,12724.393,1,1,0.00000,3.39292,0.00000,0.00000,0.00000,0.00000,0.00000,,0.0002643202,,0,
673,02/02/2022 21:09:32.983,13144.415,13144.415,1,1,0.00000,3.38660,0.00000,0.00000,0.00000,0.00000,0.00000,,2.323356E-05,,,
694,02/02/2022 21:16:33.005,13564.436,13564.436,1,1,0.00000,3.38357,0.00000,0.00000,0.00000,0.00000,0.00000,,-2.015139E-06,,0,
715,02/02/2022 21:23:33.027,13984.459,13984.459,1,1,0.00000,3.37685,0.00000,0.00000,0.00000,0.00000,0.00000,,-1.288183E-05,,,
736,02/02/2022 21:30:28.569,14400.001,14400.001,1,1,0.00000,3.38245,0.00000,0.00000,0.00000,0.00000,0.00000,,-0.0004788291,0,0,0
757,02/02/2022 21:30:28.974,14400.406,0.168,1,3,0.00000,3.73898,0.00000,0.00000,0.00000,0.00000,0.00000,,,,,
778,02/02/2022 21:30:30.127,14401.559,1.321,1,3,0.00000,3.51496,0.00000,0.00000,0.00000,0.00000,0.00000,,-0.08265328,,,
799,02/02/2022 21:33:35.189,14586.621,186.383,1,3,0.00000,3.38260,0.00000,0.00000,0.00000,0.00000,0.00000,,-0.0003823966,,,
820,02/02/2022 21:40:35.204,15006.636,606.398,1,3,0.00000,3.38528,0.00000,0.00000,0.00000,0.00000,0.00000,,-6.144249E-05,,0,
841,02/02/2022 21:47:35.225,15426.657,1026.419,1,3,0.00000,3.37529,0.00000,0.00000,0.00000,0.00000,0.00000,,2.963611E-06,,,
862,02/02/2022 21:54:35.241,15846.673,1446.436,1,3,0.00000,3.38271,0.00000,0.00000,0.00000,0.00000,0.00000,,4.271021E-05,,,
883,02/02/2022 22:01:35.253,16266.685,1866.447,1,3,0.00000,3.38099,0.00000,0.00000,0.00000,0.00000,0.00000,,-7.729162E-05,,,
904,02/02/2022 22:08:35.268,16686.699,2286.462,1,3,0.00000,3.38925,0.00000,0.00000,0.00000,0.00000,0.00000,,6.045066E-05,,,
925,02/02/2022 22:15:35.285,17106.717,2706.479,1,3,0.00000,3.39028,0.00000,0.00000,0.00000,0.00000,0.00000,,-2.663144E-05,,,
946,02/02/2022 22:22:35.300,17526.732,3126.495,1,3,0.00000,3.39459,0.00000,0.00000,0.00000,0.00000,0.00000,,-5.777114E-05,,,
967,02/02/2022 22:29:35.316,17946.747,3546.510,1,3,0.00000,3.40376,0.00000,0.00000,0.00000,0.00000,0.00000,,7.743877E-05,,,
988,02/02/2022 22:30:29.186,18000.618,0.154,1,5,0.00000,3.23021,0.00000,0.00000,0.00000,0.00000,0.00000,,,,,
1009,02/02/2022 22:32:23.005,18114.437,113.973,1,5,0.00000,3.40386,0.00000,0.00000,0.00000,0.00000,0.00000,,-6.653909E-05,,,
1030,02/02/2022 22:39:23.022,18534.454,533.990,1,5,0.00000,3.40552,0.00000,0.00000,0.00000,0.00000,0.00000,,-4.516244E-05,,,
1051,02/02/2022 22:46:23.035,18954.467,954.003,1,5,0.00000,3.40657,0.00000,0.00000,0.00000,0.00000,0.00000,,-1.797716E-05,,,
1072,02/02/2022 22:53:23.053,19374.485,1374.021,1,5,0.00000,3.40698,0.00000,0.00000,0.00000,0.00000,0.00000,,-5.761308E-05,,,
1093,02/02/2022 23:00:23.064,19794.496,1794.032,1,5,0.00000,3.40694,0.00000,0.00000,0.00000,0.00000,0.00000,,-5.666049E-05,,,
1114,02/02/2022 23:07:23.080,20214.512,2214.048,1,5,0.00000,3.40818,0.00000,0.00000,0.00000,0.00000,0.00000,,-2.517073E-05,,,
1135,02/02/2022 23:14:23.100,20634.532,2634.068,1,5,0.00000,3.40893,0.00000,0.00000,0.00000,0.00000,0.00000,,3.954942E-05,,,
1156,02/02/2022 23:21:23.116,21054.548,3054.084,1,5,0.00000,3.40930,0.00000,0.00000,0.00000,0.00000,0.00000,,-6.440542E-05,,,
1177,02/02/2022 23:28:23.134,21474.566,3474.102,1,5,0.00000,3.40960,0.00000,0.00000,0.00000,0.00000,0.00000,,7.428786E-06,,,
1198,02/02/2022 23:30:29.343,21600.775,0.079,2,3,0.00000,3.65201,0.00000,0.00000,0.00000,0.00000,0.00000,,,,,
1219,02/02/2022 23:30:36.549,21607.981,7.285,2,3,0.00000,3.41843,0.00000,0.00000,0.00000,0.00000,0.00000,,-0.002645944,,,
1240,02/02/2022 23:37:36.565,22027.997,427.301,2,3,0.00000,3.41094,0.00000,0.00000,0.00000,0.00000,0.00000,,7.301976E-05,,,
1261,02/02/2022 23:44:36.581,22448.012,847.316,2,3,0.00000,3.41160,0.00000,0.00000,0.00000,0.00000,0.00000,,6.440168E-06,,0,
1282,02/02/2022 23:51:36.598,22868.030,1267.334,2,3,0.00000,3.41129,0.00000,0.00000,0.00000,0.00000,0.00000,,-1.086531E-05,,,
1303,02/02/2022 23:58:36.615,23288.047,1687.351,2,3,0.00000,3.41201,0.00000,0.00000,0.00000,0.00000,0.00000,,5.623098E-05,,,
1324,02/03/2022 00:05:36.628,23708.060,2107.364,2,3,0.00000,3.41274,0.00000,0.00000,0.00000,0.00000,0.00000,,-3.674421E-06,,,
1345,02/03/2022 00:12:36.638,24128.070,2527.374,2,3,0.00000,3.41244,0.00000,0.00000,0.00000,0.00000,0.00000,,-5.428931E-05,,,
1366,02/03/2022 00:19:36.654,24548.086,2947.389,2,3,0.00000,3.41275,0.00000,0.00000,0.00000,0.00000,0.00000,,4.642953E-05,,,
1387,02/03/2022 00:26:36.669,24968.100,3367.404,2,3,0.00000,3.41330,0.00000,0.00000,0.00000,0.00000,0.00000,,1.975512E-07,,,
1408,02/03/2022 00:30:29.525,25200.957,0.025,2,5,0.00000,3.19763,0.00000,0.00000,0.00000,0.00000,0.00000,,,,,
1429,02/03/2022 00:31:30.584,25262.015,61.083,2,5,0.00000,3.41114,0.00000,0.00000,0.00000,0.00000,0.00000,,2.054481E-06,,,
1450,02/03/2022 00:38:30.599,25682.030,481.098,2,5,0.00000,3.41345,0.00000,0.00000,0.00000,0.00000,0.00000,,3.994716E-05,,,
1471,02/03/2022 00:45:30.614,26102.046,901.113,2,5,0.00000,3.41268,0.00000,0.00000,0.00000,0.00000,0.00000,,-3.986847E-05,,,
1492,02/03/2022 00:52:30.627,26522.058,1321.126,2,5,0.00000,3.41253,0.00000,0.00000,0.00000,0.00000,0.00000,,-1.762376E-05,,,
1513,02/03/2022 00:59:30.647,26942.078,1741.146,2,5,0.00000,3.41154,0.00000,0.00000,0.00000,0.00000,0.00000,,-5.761356E-05,,,
1534,02/03/2022 01:06:30.667,27362.098,2161.166,2,5,0.00000,3.41270,0.00000,0.00000,0.00000,0.00000,0.00000,,2.915855E-05,,,
1555,02/03/2022 01:13:30.684,27782.116,2581.184,2,5,0.00000,3.41280,0.00000,0.00000,0.00000,0.00000,0.00000,,4.958452E-05,,,
1576,02/03/2022 01:20:30.704,28202.136,3001.204,2,5,0.00000,3.41299,0.00000,0.00000,0.00000,0.00000,0.00000,,-5.492196E-06,,,
1597,02/03/2022 01:27:30.718,28622.150,3421.218,2,5,0.00000,3.41318,0.00000,0.00000,0.00000,0.00000,0.00000,,3.133395E-05,,,
1618,02/03/2022 01:30:29.749,28801.180,0.007,4,7,0.00000,1.94574,-0.00001,0.00000,0.00000,0.00000,0.00000,,,,,
1639,02/03/2022 01:30:30.052,28801.484,0.008,6,10,-0.00001,1.80295,-0.00001,0.00000,0.00000,0.00000,0.00000,,,,,
1641,02/03/2022 01:30:30.117,28801.548,0.073,6,10,0.00002,2.18757,0.00003,0.00000,0.00000,0.00000,0.00000,,-105.9987,0,0,0