File: Data/XRD/NMC_3_GM_10tt50tt_05ts_6ks_bg_subtracted.xye
'Id: "" Comment: "" Operator: "Lab Manager" Anode: "Mo" Scantype: "Coupled TwoTheta/Theta" TimePerStep: "288" X: "9999" Y: "9999" Z: "9999"
10.0000 0.000 0.343
10.1429 -0.424 0.335
10.2858 -0.598 0.330
10.4287 0.311 0.330
10.5716 0.158 0.326
10.7145 0.098 0.322
10.8574 -0.030 0.320
11.0003 0.365 0.320
11.1432 0.157 0.317
11.2861 0.444 0.317
11.4290 1.056 0.318
11.5719 1.138 0.317
11.7148 1.307 0.316
11.8577 2.133 0.319
12.0007 2.247 0.317
12.1436 2.907 0.319
12.2865 3.230 0.319
12.4294 4.100 0.322
12.5723 3.982 0.319
12.7152 4.624 0.321
12.8581 4.642 0.319
13.0010 4.396 0.315
13.1439 4.325 0.313
13.2868 3.996 0.309
13.4297 4.315 0.309
13.5726 4.004 0.305
13.7155 3.757 0.301
13.8584 3.200 0.296
14.0013 2.632 0.290
14.1442 2.538 0.287
14.2871 2.515 0.285
14.4300 1.880 0.279
14.5729 1.563 0.274
14.7158 1.349 0.270
14.8587 1.342 0.268
15.0016 0.928 0.263
15.1445 0.647 0.258
15.2874 0.198 0.252
15.4303 0.509 0.252
15.5732 0.631 0.250
15.7162 -0.101 0.243
15.8591 0.188 0.243
16.0020 1.962 0.254
16.1449 3.887 0.266
16.2878 3.932 0.265
16.4307 15.580 0.331
16.5736 22.053 0.363
16.7165 3.563 0.258
16.8594 2.915 0.253
17.0023 3.748 0.257
17.1452 10.119 0.296
17.2881 12.248 0.307
17.4310 1.870 0.239
17.5739 0.142 0.225
17.7168 -0.010 0.222
17.8597 0.173 0.221
18.0026 0.004 0.218
18.1455 -0.069 0.216
18.2884 0.121 0.216
18.4313 -0.081 0.212
18.5742 0.188 0.212
18.7171 0.160 0.210
18.8600 0.383 0.211
19.0029 0.179 0.207
19.1458 0.197 0.206
19.2887 2.225 0.221
19.4316 7.398 0.257
19.5746 9.500 0.270
19.7175 10.806 0.277
19.8604 40.863 0.425
20.0033 32.965 0.391
20.1462 4.721 0.232
20.2891 0.292 0.194
20.4320 0.240 0.192
20.5749 -0.209 0.186
20.7178 0.046 0.187
20.8607 -0.063 0.184
21.0036 -0.135 0.182
21.1465 0.733 0.189
21.2894 1.687 0.196
21.4323 1.361 0.192
21.5752 3.655 0.210
21.7181 12.271 0.271
21.8610 5.949 0.226
22.0039 0.774 0.181
22.1468 0.264 0.174
22.2897 0.288 0.173
22.4326 0.329 0.172
22.5755 0.053 0.167
22.7184 0.369 0.169
22.8613 0.223 0.166
23.0042 0.116 0.163
23.1471 0.043 0.160
23.2901 0.198 0.160
23.4330 0.529 0.162
23.5759 0.189 0.157
23.7188 0.070 0.154
23.8617 0.262 0.155
24.0046 -0.126 0.150
24.1475 0.277 0.154
24.2904 0.315 0.154
24.4333 0.167 0.152
24.5762 0.154 0.152
24.7191 0.033 0.151
24.8620 -0.082 0.149
25.0049 0.029 0.151
25.1478 0.157 0.152
25.2907 0.405 0.156
25.4336 1.711 0.170
25.5765 2.141 0.175
25.7194 3.455 0.188
25.8623 9.580 0.238
26.0052 8.582 0.231
26.1481 4.364 0.197
26.2910 1.359 0.168
26.4339 3.257 0.187
26.5768 6.181 0.213
26.7197 9.856 0.241
26.8626 14.555 0.273
27.0055 17.017 0.288
27.1485 17.567 0.291
27.2914 15.932 0.282
27.4343 11.879 0.255
27.5772 7.825 0.226
27.7201 5.935 0.211
27.8630 5.309 0.206
28.0059 6.094 0.213
28.1488 11.191 0.251
28.2917 23.220 0.323
28.4346 24.630 0.331
28.5775 9.142 0.236
28.7204 2.619 0.182
28.8633 0.764 0.163
29.0062 0.256 0.157
29.1491 1.027 0.165
29.2920 1.588 0.171
29.4349 2.183 0.177
29.5778 3.412 0.188
29.7207 9.261 0.236
29.8636 7.054 0.219
30.0065 4.327 0.196
30.1494 0.308 0.155
30.2923 0.398 0.156
30.4352 0.178 0.153
30.5781 0.717 0.159
30.7210 1.137 0.163
30.8639 2.037 0.172
31.0069 3.059 0.181
31.1498 4.387 0.193
31.2927 4.816 0.197
31.4356 4.472 0.193
31.5785 3.459 0.183
31.7214 2.634 0.175
31.8643 1.296 0.160
32.0072 0.238 0.148
32.1501 0.220 0.147
32.2930 -0.026 0.144
32.4359 -0.152 0.142
32.5788 0.714 0.152
32.7217 1.062 0.156
32.8646 1.425 0.160
33.0075 2.683 0.173
33.1504 5.977 0.203
33.2933 6.545 0.208
33.4362 7.771 0.217
33.5791 3.898 0.184
33.7220 2.080 0.165
33.8649 -0.007 0.141
34.0078 -0.086 0.140
34.1507 0.205 0.143
34.2936 0.572 0.147
34.4365 0.986 0.152
34.5794 1.676 0.159
34.7224 4.000 0.183
34.8653 3.608 0.179
35.0082 7.614 0.214
35.1511 3.187 0.174
35.2940 2.968 0.171
35.4369 0.765 0.147
35.5798 1.185 0.151
35.7227 1.212 0.151
35.8656 3.710 0.177
36.0085 3.043 0.170
36.1514 3.597 0.175
36.2943 1.174 0.148
36.4372 0.663 0.141
36.5801 0.268 0.136
36.7230 0.112 0.133
36.8659 -0.129 0.129
37.0088 0.239 0.133
37.1517 0.105 0.130
37.2946 0.026 0.129
37.4375 -0.012 0.129
37.5804 0.171 0.131
37.7233 0.304 0.132
37.8662 0.159 0.130
38.0091 -0.246 0.125
38.1520 -0.120 0.126
38.2949 0.460 0.134
38.4378 0.697 0.136
38.5808 1.309 0.144
38.7237 1.599 0.147
38.8666 4.229 0.175
39.0095 2.239 0.154
39.1524 2.081 0.151
39.2953 0.286 0.129
39.4382 0.105 0.126
39.5811 -0.100 0.122
39.7240 -0.247 0.120
39.8669 0.066 0.124
40.0098 0.051 0.124
40.1527 0.340 0.128
40.2956 0.951 0.135
40.4385 1.228 0.139
40.5814 2.905 0.158
40.7243 1.405 0.140
40.8672 1.889 0.146
41.0101 0.545 0.128
41.1530 0.228 0.123
41.2959 0.771 0.130
41.4388 0.527 0.127
41.5817 0.411 0.124
41.7246 0.300 0.122
41.8675 0.167 0.120
42.0104 -0.124 0.115
42.1533 -0.124 0.115
42.2963 -0.019 0.116
42.4392 0.093 0.117
42.5821 0.037 0.116
42.7250 0.071 0.116
42.8679 0.120 0.117
43.0108 0.053 0.116
43.1537 -0.024 0.115
43.2966 0.124 0.118
43.4395 -0.011 0.116
43.5824 0.217 0.120
43.7253 0.923 0.130
43.8682 1.038 0.132
44.0111 1.536 0.138
44.1540 2.613 0.151
44.2969 3.547 0.162
44.4398 2.847 0.154
44.5827 3.232 0.158
44.7256 0.954 0.131
44.8685 1.073 0.133
45.0114 0.721 0.128
45.1543 0.782 0.129
45.2972 1.925 0.143
45.4401 2.789 0.153
45.5830 4.509 0.171
45.7259 4.915 0.175
45.8688 4.094 0.167
46.0117 2.081 0.144
46.1547 1.195 0.133
46.2976 0.679 0.126
46.4405 1.241 0.133
46.5834 1.653 0.138
46.7263 1.349 0.134
46.8692 0.907 0.127
47.0121 0.430 0.120
47.1550 -0.084 0.112
47.2979 0.098 0.114
47.4408 0.297 0.117
47.5837 0.009 0.112
47.7266 0.046 0.112
47.8695 0.265 0.114
48.0124 -0.130 0.108
48.1553 0.123 0.112
48.2982 0.008 0.110
48.4411 -0.066 0.109
48.5840 0.084 0.112
48.7269 0.406 0.117
48.8698 0.994 0.126
49.0127 1.487 0.133
49.1556 0.507 0.119
49.2985 0.612 0.121
49.4414 0.379 0.117
49.5843 0.190 0.115
49.7272 0.311 0.116
49.8702 0.658 0.121
50.0131 1.607 0.134
50.1560 1.492 0.133
50.2989 2.539 0.146
50.4418 3.251 0.154
50.5847 1.692 0.135
50.7276 2.412 0.144
50.8705 1.040 0.126
51.0134 0.855 0.123
51.1563 0.651 0.120
51.2992 1.255 0.128
51.4421 0.555 0.117
51.5850 0.309 0.113
51.7279 0.099 0.110
51.8708 0.102 0.109
52.0137 0.212 0.110
52.1566 -0.045 0.106
52.2995 -0.079 0.105
52.4424 -0.130 0.105
52.5853 0.084 0.109
52.7282 0.243 0.114
52.8640 0.000 0.113