File: Data/XRD/NMC_3_GM_4tt35tt_05ts_6ks_exported.xye
'Id: "" Comment: "" Operator: "Lab Manager" Anode: "Mo" Scantype: "Coupled TwoTheta/Theta" TimePerStep: "1536" X: "9999" Y: "9999" Z: "9999"
4.0000 110.371 0.268
4.1021 111.796 0.270
4.2041 115.868 0.275
4.3062 119.026 0.278
4.4083 122.932 0.283
4.5104 127.962 0.289
4.6124 131.913 0.293
4.7145 137.387 0.299
4.8166 143.805 0.306
4.9187 147.544 0.310
5.0207 155.234 0.318
5.1228 161.530 0.324
5.2249 164.471 0.327
5.3270 170.777 0.333
5.4290 173.976 0.337
5.5311 176.092 0.339
5.6332 178.022 0.340
5.7353 177.893 0.340
5.8373 176.721 0.339
5.9394 175.756 0.338
6.0415 171.052 0.334
6.1436 168.734 0.331
6.2456 165.132 0.328
6.3477 157.665 0.320
6.4498 154.021 0.317
6.5519 149.442 0.312
6.6539 143.681 0.306
6.7560 138.997 0.301
6.8581 133.706 0.295
6.9601 128.886 0.290
7.0622 125.396 0.286
7.1643 119.047 0.278
7.2664 115.635 0.274
7.3684 111.144 0.269
7.4705 106.005 0.263
7.5726 103.371 0.259
7.6747 98.546 0.253
7.7767 95.066 0.249
7.8788 90.999 0.243
7.9809 86.865 0.238
8.0830 83.714 0.233
8.1850 80.989 0.230
8.2871 80.546 0.229
8.3892 91.260 0.244
8.4913 148.674 0.311
8.5933 70.952 0.215
8.6954 64.379 0.205
8.7975 60.933 0.199
8.8996 58.206 0.195
9.0016 56.286 0.191
9.1037 53.472 0.187
9.2058 51.820 0.184
9.3079 50.416 0.181
9.4099 48.010 0.177
9.5120 46.570 0.174
9.6141 45.615 0.172
9.7162 43.371 0.168
9.8182 42.289 0.166
9.9203 41.136 0.164
10.0224 40.246 0.162
10.1244 39.616 0.161
10.2265 38.067 0.157
10.3286 38.063 0.157
10.4307 37.716 0.157
10.5327 37.100 0.155
10.6348 37.215 0.156
10.7369 36.920 0.155
10.8390 36.786 0.155
10.9410 36.658 0.154
11.0431 36.680 0.155
11.1452 36.794 0.155
11.2473 37.186 0.156
11.3493 37.096 0.155
11.4514 37.717 0.157
11.5535 38.110 0.158
11.6556 38.120 0.158
11.7576 38.796 0.159
11.8597 39.066 0.159
11.9618 38.863 0.159
12.0639 39.640 0.161
12.1659 39.437 0.160
12.2680 39.964 0.161
12.3701 40.105 0.162
12.4722 40.109 0.162
12.5742 40.229 0.162
12.6763 40.510 0.162
12.7784 40.258 0.162
12.8804 40.516 0.162
12.9825 40.285 0.162
13.0846 39.533 0.160
13.1867 39.717 0.161
13.2887 39.235 0.160
13.3908 39.107 0.160
13.4929 38.841 0.159
13.5950 38.063 0.157
13.6970 37.842 0.157
13.7991 37.368 0.156
13.9012 36.378 0.154
14.0033 36.178 0.153
14.1053 35.719 0.152
14.2074 34.846 0.151
14.3095 34.064 0.149
14.4116 33.583 0.148
14.5136 32.732 0.146
14.6157 32.818 0.146
14.7178 31.853 0.144
14.8199 31.267 0.143
14.9219 30.668 0.141
15.0240 29.875 0.139
15.1261 29.585 0.139
15.2282 29.160 0.138
15.3302 28.219 0.136
15.4323 28.118 0.135
15.5344 27.743 0.134
15.6364 27.364 0.133
15.7385 27.087 0.133
15.8406 27.373 0.133
15.9427 27.910 0.135
16.0447 28.684 0.137
16.1468 28.284 0.136
16.2489 27.993 0.135
16.3510 29.154 0.138
16.4530 39.863 0.161
16.5551 63.081 0.203
16.6572 43.290 0.168
16.7593 28.413 0.136
16.8613 28.042 0.135
16.9634 26.971 0.133
17.0655 30.439 0.141
17.1676 32.535 0.146
17.2696 46.654 0.174
17.3717 36.256 0.154
17.4738 26.515 0.131
17.5759 25.896 0.130
17.6779 26.066 0.130
17.7800 25.710 0.129
17.8821 25.614 0.129
17.9842 25.459 0.129
18.0862 24.929 0.127
18.1883 25.086 0.128
18.2904 24.766 0.127
18.3925 24.273 0.126
18.4945 24.382 0.126
18.5966 24.208 0.126
18.6987 23.839 0.125
18.8007 23.554 0.124
18.9028 23.048 0.122
19.0049 23.007 0.122
19.1070 23.174 0.123
19.2090 24.459 0.126
19.3111 25.581 0.129
19.4132 27.745 0.134
19.5153 27.445 0.134
19.6173 26.214 0.131
19.7194 26.274 0.131
19.8215 35.751 0.153
19.9236 108.239 0.265
20.0256 64.174 0.204
20.1277 29.723 0.139
20.2298 21.863 0.119
20.3319 20.301 0.115
20.4339 20.150 0.115
20.5360 19.566 0.113
20.6381 19.202 0.112
20.7402 18.917 0.111
20.8422 18.938 0.111
20.9443 18.637 0.110
21.0464 19.165 0.112
21.1485 19.125 0.112
21.2505 19.441 0.113
21.3526 19.100 0.112
21.4547 18.704 0.110
21.5567 18.921 0.111
21.6588 23.470 0.124
21.7609 28.408 0.136
21.8630 26.240 0.131
21.9650 18.257 0.109
22.0671 17.329 0.106
22.1692 17.083 0.105
22.2713 17.038 0.105
22.3733 16.794 0.105
22.4754 16.843 0.105
22.5775 16.652 0.104
22.6796 16.441 0.103
22.7816 16.299 0.103
22.8837 15.995 0.102
22.9858 16.072 0.102
23.0879 15.978 0.102
23.1899 15.622 0.101
23.2920 15.460 0.100
23.3941 15.328 0.100
23.4962 15.127 0.099
23.5982 15.318 0.100
23.7003 14.921 0.099
23.8024 15.016 0.099
23.9045 14.770 0.098
24.0065 14.671 0.098
24.1086 14.891 0.098
24.2107 14.847 0.098
24.3127 14.561 0.097
24.4148 14.658 0.098
24.5169 14.583 0.097
24.6190 14.441 0.097
24.7210 14.715 0.098
24.8231 14.372 0.097
24.9252 14.476 0.097
25.0273 14.286 0.096
25.1293 14.251 0.096
25.2314 15.126 0.099
25.3335 15.454 0.100
25.4356 15.406 0.100
25.5376 15.811 0.101
25.6397 15.313 0.100
25.7418 16.114 0.102
25.8439 20.574 0.116
25.9459 30.110 0.140
26.0480 21.525 0.118
26.1501 19.716 0.113
26.2522 15.640 0.101
26.3542 16.198 0.103
26.4563 17.494 0.107
26.5584 19.354 0.112
26.6605 22.409 0.121
26.7625 25.019 0.128
26.8646 28.636 0.137
26.9667 30.682 0.141
27.0688 31.463 0.143
27.1708 32.535 0.146
27.2729 30.199 0.140
27.3750 27.786 0.134
27.4770 25.177 0.128
27.5791 22.227 0.120
27.6812 20.467 0.115
27.7833 19.660 0.113
27.8853 18.799 0.111
27.9874 18.786 0.111
28.0895 18.440 0.110
28.1916 21.859 0.119
28.2936 39.023 0.159
28.3957 30.874 0.142
28.4978 40.854 0.163
28.5999 24.368 0.126
28.7019 19.557 0.113
28.8040 14.738 0.098
28.9061 14.382 0.097
29.0082 14.430 0.097
29.1102 15.104 0.099
29.2123 15.161 0.099
29.3144 15.434 0.100
29.4165 15.199 0.099
29.5185 15.277 0.100
29.6206 15.668 0.101
29.7227 22.034 0.120
29.8248 24.607 0.127
29.9268 19.889 0.114
30.0289 17.116 0.106
30.1310 14.063 0.096
30.2330 13.703 0.094
30.3351 13.520 0.094
30.4372 13.327 0.093
30.5393 13.801 0.095
30.6413 13.965 0.095
30.7434 14.309 0.097
30.8455 15.084 0.099
30.9476 15.681 0.101
31.0496 16.428 0.103
31.1517 17.145 0.106
31.2538 17.219 0.106
31.3559 17.863 0.108
31.4579 17.264 0.106
31.5600 16.445 0.103
31.6621 15.736 0.101
31.7642 14.576 0.097
31.8662 13.706 0.094
31.9683 13.018 0.092
32.0704 12.536 0.090
32.1725 12.421 0.090
32.2745 12.615 0.091
32.3766 12.639 0.091
32.4787 12.641 0.091
32.5808 12.755 0.091
32.6828 13.063 0.092
32.7849 13.300 0.093
32.8870 13.598 0.094
32.9890 13.971 0.095
33.0911 16.656 0.104
33.1932 16.581 0.104
33.2953 17.863 0.108
33.3973 18.893 0.111
33.4994 19.886 0.114
33.6015 15.706 0.101
33.7036 15.158 0.099
33.8056 12.718 0.091
33.9077 12.242 0.089
34.0098 12.072 0.089
34.1119 12.085 0.089
34.2139 12.317 0.090
34.3160 12.432 0.090
34.4181 12.505 0.090
34.5202 13.004 0.092
34.6171 13.269 0.093