File: Data/XRD/NMC_3_GM_10tt50tt_05ts_6ks_exported.xye
'Id: "" Comment: "" Operator: "Lab Manager" Anode: "Mo" Scantype: "Coupled TwoTheta/Theta" TimePerStep: "288" X: "9999" Y: "9999" Z: "9999"
10.0000 33.955 0.343
10.1429 32.330 0.335
10.2858 31.288 0.330
10.4287 31.351 0.330
10.5716 30.566 0.326
10.7145 29.924 0.322
10.8574 29.462 0.320
11.0003 29.521 0.320
11.1432 28.976 0.317
11.2861 28.924 0.317
11.4290 29.194 0.318
11.5719 28.934 0.317
11.7148 28.757 0.316
11.8577 29.236 0.319
12.0007 29.000 0.317
12.1436 29.309 0.319
12.2865 29.278 0.319
12.4294 29.792 0.322
12.5723 29.316 0.319
12.7152 29.597 0.321
12.8581 29.253 0.319
13.0010 28.642 0.315
13.1439 28.205 0.313
13.2868 27.507 0.309
13.4297 27.455 0.309
13.5726 26.771 0.305
13.7155 26.149 0.301
13.8584 25.215 0.296
14.0013 24.267 0.290
14.1442 23.792 0.287
14.2871 23.385 0.285
14.4300 22.365 0.279
14.5729 21.660 0.274
14.7158 21.056 0.270
14.8587 20.656 0.268
15.0016 19.847 0.263
15.1445 19.170 0.258
15.2874 18.323 0.252
15.4303 18.233 0.252
15.5732 17.951 0.250
15.7162 16.944 0.243
15.8591 17.042 0.243
16.0020 18.622 0.254
16.1449 20.351 0.266
16.2878 20.198 0.265
16.4307 31.646 0.331
16.5736 37.917 0.363
16.7165 19.222 0.258
16.8594 18.368 0.253
17.0023 18.993 0.257
17.1452 25.153 0.296
17.2881 27.069 0.307
17.4310 16.476 0.239
17.5739 14.531 0.225
17.7168 14.160 0.222
17.8597 14.122 0.221
18.0026 13.729 0.218
18.1455 13.431 0.216
18.2884 13.392 0.216
18.4313 12.962 0.212
18.5742 13.000 0.212
18.7171 12.740 0.210
18.8600 12.778 0.211
19.0029 12.389 0.207
19.1458 12.233 0.206
19.2887 14.087 0.221
19.4316 19.083 0.257
19.5746 21.007 0.270
19.7175 22.132 0.277
19.8604 52.007 0.425
20.0033 43.924 0.391
20.1462 15.493 0.232
20.2891 10.875 0.194
20.4320 10.632 0.192
20.5749 9.990 0.186
20.7178 10.049 0.187
20.8607 9.743 0.184
21.0036 9.510 0.182
21.1465 10.240 0.189
21.2894 11.052 0.196
21.4323 10.583 0.192
21.5752 12.733 0.210
21.7181 21.201 0.271
21.8610 14.729 0.226
22.0039 9.403 0.181
22.1468 8.740 0.174
22.2897 8.608 0.173
22.4326 8.497 0.172
22.5755 8.066 0.167
22.7184 8.226 0.169
22.8613 7.920 0.166
23.0042 7.653 0.163
23.1471 7.417 0.160
23.2901 7.406 0.160
23.4330 7.569 0.162
23.5759 7.094 0.157
23.7188 6.858 0.154
23.8617 6.931 0.155
24.0046 6.458 0.150
24.1475 6.844 0.154
24.2904 6.861 0.154
24.4333 6.691 0.152
24.5762 6.653 0.152
24.7191 6.524 0.151
24.8620 6.413 0.149
25.0049 6.524 0.151
25.1478 6.684 0.152
25.2907 6.972 0.156
25.4336 8.316 0.170
25.5765 8.781 0.175
25.7194 10.128 0.188
25.8623 16.285 0.238
26.0052 15.316 0.231
26.1481 11.125 0.197
26.2910 8.146 0.168
26.4339 10.066 0.187
26.5768 13.010 0.213
26.7197 16.705 0.241
26.8626 21.420 0.273
27.0055 23.896 0.288
27.1485 24.458 0.291
27.2914 22.833 0.282
27.4343 18.788 0.255
27.5772 14.740 0.226
27.7201 12.854 0.211
27.8630 12.229 0.206
28.0059 13.014 0.213
28.1488 18.108 0.251
28.2917 30.132 0.323
28.4346 31.535 0.331
28.5775 16.038 0.236
28.7204 9.503 0.182
28.8633 7.635 0.163
29.0062 7.111 0.157
29.1491 7.865 0.165
29.2920 8.406 0.171
29.4349 8.979 0.177
29.5778 10.184 0.188
29.7207 16.007 0.236
29.8636 13.771 0.219
30.0065 11.014 0.196
30.1494 6.962 0.155
30.2923 7.017 0.156
30.4352 6.760 0.153
30.5781 7.260 0.159
30.7210 7.639 0.163
30.8639 8.497 0.172
31.0069 9.472 0.181
31.1498 10.753 0.193
31.2927 11.132 0.197
31.4356 10.736 0.193
31.5785 9.670 0.183
31.7214 8.788 0.175
31.8643 7.392 0.160
32.0072 6.274 0.148
32.1501 6.205 0.147
32.2930 5.951 0.144
32.4359 5.816 0.142
32.5788 6.670 0.152
32.7217 7.003 0.156
32.8646 7.351 0.160
33.0075 8.590 0.173
33.1504 11.865 0.203
33.2933 12.410 0.208
33.4362 13.611 0.217
33.5791 9.712 0.184
33.7220 7.865 0.165
33.8649 5.747 0.141
34.0078 5.646 0.140
34.1507 5.917 0.143
34.2936 6.260 0.147
34.4365 6.649 0.152
34.5794 7.313 0.159
34.7224 9.608 0.183
34.8653 9.184 0.179
35.0082 13.156 0.214
35.1511 8.694 0.174
35.2940 8.438 0.171
35.4369 6.194 0.147
35.5798 6.573 0.151
35.7227 6.556 0.151
35.8656 9.007 0.177
36.0085 8.292 0.170
36.1514 8.795 0.175
36.2943 6.319 0.148
36.4372 5.753 0.141
36.5801 5.302 0.136
36.7230 5.087 0.133
36.8659 4.785 0.129
37.0088 5.094 0.133
37.1517 4.899 0.130
37.2946 4.806 0.129
37.4375 4.760 0.129
37.5804 4.934 0.131
37.7233 5.056 0.132
37.8662 4.896 0.130
38.0091 4.476 0.125
38.1520 4.583 0.126
38.2949 5.142 0.134
38.4378 5.358 0.136
38.5808 5.944 0.144
38.7237 6.208 0.147
38.8666 8.809 0.175
39.0095 6.788 0.154
39.1524 6.597 0.151
39.2953 4.767 0.129
39.4382 4.549 0.126
39.5811 4.309 0.122
39.7240 4.149 0.120
39.8669 4.448 0.124
40.0098 4.417 0.124
40.1527 4.688 0.128
40.2956 5.278 0.135
40.4385 5.531 0.139
40.5814 7.184 0.158
40.7243 5.656 0.140
40.8672 6.111 0.146
41.0101 4.736 0.128
41.1530 4.385 0.123
41.2959 4.892 0.130
41.4388 4.611 0.127
41.5817 4.455 0.124
41.7246 4.302 0.122
41.8675 4.128 0.120
42.0104 3.809 0.115
42.1533 3.778 0.115
42.2963 3.858 0.116
42.4392 3.951 0.117
42.5821 3.875 0.116
42.7250 3.903 0.116
42.8679 3.955 0.117
43.0108 3.892 0.116
43.1537 3.840 0.115
43.2966 4.010 0.118
43.4395 3.896 0.116
43.5824 4.142 0.120
43.7253 4.865 0.130
43.8682 4.993 0.132
44.0111 5.503 0.138
44.1540 6.590 0.151
44.2969 7.531 0.162
44.4398 6.837 0.154
44.5827 7.226 0.158
44.7256 4.948 0.131
44.8685 5.066 0.133
45.0114 4.712 0.128
45.1543 4.767 0.129
45.2972 5.903 0.143
45.4401 6.757 0.153
45.5830 8.465 0.171
45.7259 8.858 0.175
45.8688 8.021 0.167
46.0117 5.990 0.144
46.1547 5.083 0.133
46.2976 4.545 0.126
46.4405 5.083 0.133
46.5834 5.469 0.138
46.7263 5.135 0.134
46.8692 4.663 0.127
47.0121 4.153 0.120
47.1550 3.604 0.112
47.2979 3.750 0.114
47.4408 3.917 0.117
47.5837 3.594 0.112
47.7266 3.594 0.112
47.8695 3.774 0.114
48.0124 3.358 0.108
48.1553 3.601 0.112
48.2982 3.507 0.110
48.4411 3.451 0.109
48.5840 3.618 0.112
48.7269 3.955 0.117
48.8698 4.556 0.126
49.0127 5.059 0.133
49.1556 4.087 0.119
49.2985 4.198 0.121
49.4414 3.969 0.117
49.5843 3.781 0.115
49.7272 3.903 0.116
49.8702 4.247 0.121
50.0131 5.191 0.134
50.1560 5.069 0.133
50.2989 6.108 0.146
50.4418 6.809 0.154
50.5847 5.236 0.135
50.7276 5.941 0.144
50.8705 4.552 0.126
51.0134 4.347 0.123
51.1563 4.122 0.120
51.2992 4.701 0.128
51.4421 3.976 0.117
51.5850 3.701 0.113
51.7279 3.462 0.110
51.8708 3.434 0.109
52.0137 3.514 0.110
52.1566 3.226 0.106
52.2995 3.205 0.105
52.4424 3.177 0.105
52.5853 3.434 0.109
52.7282 3.733 0.114
52.8640 3.705 0.113