File: Data/XRD/NMC_3_GM_4tt35tt_05ts_6ks_bg_subtracted.xye
'Id: "" Comment: "" Operator: "Lab Manager" Anode: "Mo" Scantype: "Coupled TwoTheta/Theta" TimePerStep: "1536" X: "9999" Y: "9999" Z: "9999"
4.0000 0.000 0.268
4.1021 2.323 0.270
4.2041 7.172 0.275
4.3062 11.123 0.278
4.4083 15.837 0.283
4.5104 21.692 0.289
4.6124 26.483 0.293
4.7145 32.813 0.299
4.8166 40.103 0.306
4.9187 44.730 0.310
5.0207 53.322 0.318
5.1228 60.537 0.324
5.2249 64.414 0.327
5.3270 71.670 0.333
5.4290 75.835 0.337
5.5311 78.933 0.339
5.6332 81.861 0.340
5.7353 82.745 0.340
5.8373 82.603 0.339
5.9394 82.682 0.338
6.0415 79.039 0.334
6.1436 77.798 0.331
6.2456 75.288 0.328
6.3477 68.929 0.320
6.4498 66.409 0.317
6.5519 62.969 0.312
6.6539 58.363 0.306
6.7560 54.850 0.301
6.8581 50.746 0.295
6.9601 47.129 0.290
7.0622 44.857 0.286
7.1643 39.742 0.278
7.2664 37.580 0.274
7.3684 34.355 0.269
7.4705 30.497 0.263
7.5726 29.160 0.259
7.6747 25.648 0.253
7.7767 23.497 0.249
7.8788 20.775 0.243
7.9809 18.001 0.238
8.0830 16.225 0.233
8.1850 14.892 0.230
8.2871 15.856 0.229
8.3892 27.993 0.244
8.4913 86.846 0.311
8.5933 10.580 0.215
8.6954 5.476 0.205
8.7975 3.517 0.199
8.8996 2.292 0.195
9.0016 1.890 0.191
9.1037 0.609 0.187
9.2058 0.506 0.184
9.3079 0.667 0.181
9.4099 -0.158 0.177
9.5120 -0.001 0.174
9.6141 0.483 0.172
9.7162 -0.398 0.168
9.8182 -0.215 0.166
9.9203 -0.177 0.164
10.0224 -0.007 0.162
10.1244 0.197 0.161
10.2265 -0.631 0.157
10.3286 -0.102 0.157
10.4307 0.037 0.157
10.5327 -0.207 0.155
10.6348 0.106 0.156
10.7369 -0.001 0.155
10.8390 -0.036 0.155
10.9410 -0.127 0.154
11.0431 -0.107 0.155
11.1452 -0.043 0.155
11.2473 0.240 0.156
11.3493 0.056 0.155
11.4514 0.598 0.157
11.5535 0.929 0.158
11.6556 0.893 0.158
11.7576 1.537 0.159
11.8597 1.792 0.159
11.9618 1.589 0.159
12.0639 2.382 0.161
12.1659 2.211 0.160
12.2680 2.786 0.161
12.3701 2.991 0.162
12.4722 3.073 0.162
12.5742 3.288 0.162
12.6763 3.681 0.162
12.7784 3.555 0.162
12.8804 3.955 0.162
12.9825 3.882 0.162
13.0846 3.304 0.160
13.1867 3.678 0.161
13.2887 3.401 0.160
13.3908 3.494 0.160
13.4929 3.465 0.159
13.5950 2.939 0.157
13.6970 2.987 0.157
13.7991 2.797 0.156
13.9012 2.107 0.154
14.0033 2.222 0.153
14.1053 2.095 0.152
14.2074 1.568 0.151
14.3095 1.149 0.149
14.4116 1.047 0.148
14.5136 0.591 0.146
14.6157 1.087 0.146
14.7178 0.547 0.144
14.8199 0.403 0.143
14.9219 0.261 0.141
15.0240 -0.059 0.139
15.1261 0.141 0.139
15.2282 0.220 0.138
15.3302 -0.265 0.136
15.4323 0.069 0.135
15.5344 0.106 0.134
15.6364 0.028 0.133
15.7385 -0.035 0.133
15.8406 0.182 0.133
15.9427 0.666 0.135
16.0447 1.402 0.137
16.1468 0.981 0.136
16.2489 0.684 0.135
16.3510 1.855 0.138
16.4530 12.589 0.161
16.5551 35.849 0.203
16.6572 16.115 0.168
16.7593 1.311 0.136
16.8613 1.028 0.135
16.9634 0.062 0.133
17.0655 3.651 0.141
17.1676 5.882 0.146
17.2696 20.153 0.174
17.3717 9.922 0.154
17.4738 0.364 0.131
17.5759 -0.059 0.130
17.6779 0.297 0.130
17.7800 0.088 0.129
17.8821 0.157 0.129
17.9842 0.179 0.129
18.0862 -0.159 0.127
18.1883 0.204 0.128
18.2904 0.102 0.127
18.3925 -0.172 0.126
18.4945 0.161 0.126
18.5966 0.227 0.126
18.6987 0.089 0.125
18.8007 -0.007 0.124
18.9028 -0.309 0.122
19.0049 -0.145 0.122
19.1070 0.166 0.123
19.2090 1.592 0.126
19.3111 2.871 0.129
19.4132 5.208 0.134
19.5153 5.096 0.134
19.6173 4.070 0.131
19.7194 4.350 0.131
19.8215 14.063 0.153
19.9236 86.802 0.265
20.0256 43.005 0.204
20.1277 8.837 0.139
20.2298 1.275 0.119
20.3319 0.028 0.115
20.4339 0.207 0.115
20.5360 -0.031 0.113
20.6381 -0.114 0.112
20.7402 -0.111 0.111
20.8422 0.031 0.111
20.9443 -0.147 0.110
21.0464 0.438 0.112
21.1485 0.473 0.112
21.2505 0.878 0.113
21.3526 0.643 0.112
21.4547 0.368 0.110
21.5567 0.722 0.111
21.6588 5.424 0.124
21.7609 10.530 0.136
21.8630 8.546 0.131
21.9650 0.763 0.109
22.0671 0.052 0.106
22.1692 0.038 0.105
22.2713 0.126 0.105
22.3733 0.006 0.105
22.4754 0.196 0.105
22.5775 0.135 0.104
22.6796 0.044 0.103
22.7816 0.038 0.103
22.8837 -0.121 0.102
22.9858 0.114 0.102
23.0879 0.161 0.102
23.1899 -0.042 0.101
23.2920 -0.036 0.100
23.3941 0.002 0.100
23.4962 -0.079 0.099
23.5982 0.189 0.100
23.7003 -0.116 0.099
23.8024 0.086 0.099
23.9045 -0.087 0.098
24.0065 -0.125 0.098
24.1086 0.154 0.098
24.2107 0.169 0.098
24.3127 -0.061 0.097
24.4148 0.079 0.098
24.5169 0.052 0.097
24.6190 -0.026 0.097
24.7210 0.329 0.098
24.8231 0.050 0.097
24.9252 0.202 0.097
25.0273 -0.033 0.096
25.1293 -0.198 0.096
25.2314 0.485 0.099
25.3335 0.624 0.100
25.4356 0.404 0.100
25.5376 0.651 0.101
25.6397 0.011 0.100
25.7418 0.687 0.102
25.8439 5.037 0.116
25.9459 14.479 0.140
26.0480 5.815 0.118
26.1501 3.944 0.113
26.2522 -0.179 0.101
26.3542 0.260 0.103
26.4563 1.431 0.107
26.5584 3.181 0.112
26.6605 6.142 0.121
26.7625 8.674 0.128
26.8646 12.228 0.137
26.9667 14.227 0.141
27.0688 14.978 0.143
27.1708 16.035 0.146
27.2729 13.700 0.140
27.3750 11.303 0.134
27.4770 8.726 0.128
27.5791 5.824 0.120
27.6812 4.128 0.115
27.7833 3.400 0.113
27.8853 2.635 0.111
27.9874 2.733 0.111
28.0895 2.513 0.110
28.1916 6.074 0.119
28.2936 23.396 0.159
28.3957 15.422 0.142
28.4978 25.591 0.163
28.5999 9.311 0.126
28.7019 4.721 0.113
28.8040 0.139 0.098
28.9061 0.006 0.097
29.0082 0.063 0.097
29.1102 0.715 0.099
29.2123 0.765 0.099
29.3144 1.047 0.100
29.4165 0.836 0.099
29.5185 0.954 0.100
29.6206 1.401 0.101
29.7227 7.839 0.120
29.8248 10.500 0.127
29.9268 5.885 0.114
30.0289 3.231 0.106
30.1310 0.313 0.096
30.2330 0.104 0.094
30.3351 0.020 0.094
30.4372 -0.214 0.093
30.5393 0.197 0.095
30.6413 0.315 0.095
30.7434 0.627 0.097
30.8455 1.387 0.099
30.9476 1.984 0.101
31.0496 2.747 0.103
31.1517 3.496 0.106
31.2538 3.618 0.106
31.3559 4.324 0.108
31.4579 3.805 0.106
31.5600 3.081 0.103
31.6621 2.482 0.101
31.7642 1.449 0.097
31.8662 0.721 0.094
31.9683 0.190 0.092
32.0704 -0.118 0.090
32.1725 -0.090 0.090
32.2745 0.125 0.091
32.3766 0.155 0.091
32.4787 0.078 0.091
32.5808 0.124 0.091
32.6828 0.380 0.092
32.7849 0.582 0.093
32.8870 0.859 0.094
32.9890 1.229 0.095
33.0911 3.924 0.104
33.1932 3.876 0.104
33.2953 5.201 0.108
33.3973 6.290 0.111
33.4994 7.358 0.114
33.6015 3.268 0.101
33.7036 2.825 0.099
33.8056 0.507 0.091
33.9077 0.169 0.089
34.0098 0.075 0.089
34.1119 0.002 0.089
34.2139 0.130 0.090
34.3160 0.062 0.090
34.4181 -0.143 0.090
34.5202 0.094 0.092
34.6171 0.000 0.093