File: Data/XRD/NMC_3_GM_bg_subtracted_Cu.csv
'Id:  Comment:  Operator: "Lab Manager" Anode: Mo Scantype: "Coupled TwoTheta/Theta" TimePerStep: 1536 X: 9999 Y: 9999 Z: 9999
4 0 0.268 8.69417
4.1021 2.323 0.27 8.91644
4.2041 7.172 0.275 9.13852
4.3062 11.123 0.278 9.36084
4.4083 15.837 0.283 9.58319
4.5104 21.692 0.289 9.80557
4.6124 26.483 0.293 10.0278
4.7145 32.813 0.299 10.2502
4.8166 40.103 0.306 10.4727
4.9187 44.73 0.31 10.6952
5.0207 53.322 0.318 10.9175
5.1228 60.537 0.324 11.14
5.2249 64.414 0.327 11.3626
5.327 71.67 0.333 11.5853
5.429 75.835 0.337 11.8077
5.5311 78.933 0.339 12.0304
5.6332 81.861 0.34 12.2532
5.7353 82.745 0.34 12.4759
5.8373 82.603 0.339 12.6985
5.9394 82.682 0.338 12.9214
6.0415 79.039 0.334 13.1443
6.1436 77.798 0.331 13.3672
6.2456 75.288 0.328 13.5899
6.3477 68.929 0.32 13.8129
6.4498 66.409 0.317 14.036
6.5519 62.969 0.312 14.2591
6.6539 58.363 0.306 14.482
6.756 54.85 0.301 14.7052
6.8581 50.746 0.295 14.9284
6.9601 47.129 0.29 15.1515
7.0622 44.857 0.286 15.3748
7.1643 39.742 0.278 15.5981
7.2664 37.58 0.274 15.8215
7.3684 34.355 0.269 16.0448
7.4705 30.497 0.263 16.2683
7.5726 29.16 0.259 16.4918
7.6747 25.648 0.253 16.7154
7.7767 23.497 0.249 16.9389
7.8788 20.775 0.243 17.1626
7.9809 18.001 0.238 17.3863
8.083 16.225 0.233 17.6101
8.185 14.892 0.23 17.8338
8.2871 15.856 0.229 18.0577
8.3892 27.993 0.244 18.2817
8.4913 86.846 0.311 18.5057
8.5933 10.58 0.215 18.7296
8.6954 5.476 0.205 18.9537
8.7975 3.517 0.199 19.1779
8.8996 2.292 0.195 19.4022
9.0016 1.89 0.191 19.6263
9.1037 0.609 0.187 19.8507
9.2058 0.506 0.184 20.0751
9.3079 0.667 0.181 20.2996
9.4099 -0.158 0.177 20.524
9.512 -0.001 0.174 20.7486
9.6141 0.483 0.172 20.9733
9.7162 -0.398 0.168 21.198
9.8182 -0.215 0.166 21.4226
9.9203 -0.177 0.164 21.6475
10.0224 -0.007 0.162 21.8725
10.1244 0.197 0.161 22.0973
10.2265 -0.631 0.157 22.3224
10.3286 -0.102 0.157 22.5475
10.4307 0.037 0.157 22.7728
10.5327 -0.207 0.155 22.9978
10.6348 0.106 0.156 23.2232
10.7369 -0.001 0.155 23.4487
10.839 -0.036 0.155 23.6742
10.941 -0.127 0.154 23.8996
11.0431 -0.107 0.155 24.1252
11.1452 -0.043 0.155 24.351
11.2473 0.24 0.156 24.5768
11.3493 0.056 0.155 24.8025
11.4514 0.598 0.157 25.0284
11.5535 0.929 0.158 25.2545
11.6556 0.893 0.158 25.4806
11.7576 1.537 0.159 25.7066
11.8597 1.792 0.159 25.9329
11.9618 1.589 0.159 26.1593
12.0639 2.382 0.161 26.3858
12.1659 2.211 0.16 26.6121
12.268 2.786 0.161 26.8387
12.3701 2.991 0.162 27.0654
12.4722 3.073 0.162 27.2922
12.5742 3.288 0.162 27.5189
12.6763 3.681 0.162 27.7459
12.7784 3.555 0.162 27.9729
12.8804 3.955 0.162 28.1998
12.9825 3.882 0.162 28.4271
13.0846 3.304 0.16 28.6544
13.1867 3.678 0.161 28.8818
13.2887 3.401 0.16 29.1091
13.3908 3.494 0.16 29.3367
13.4929 3.465 0.159 29.5645
13.595 2.939 0.157 29.7923
13.697 2.987 0.157 30.0199
13.7991 2.797 0.156 30.2479
13.9012 2.107 0.154 30.476
14.0033 2.222 0.153 30.7042
14.1053 2.095 0.152 30.9323
14.2074 1.568 0.151 31.1607
14.3095 1.149 0.149 31.3892
14.4116 1.047 0.148 31.6178
14.5136 0.591 0.146 31.8462
14.6157 1.087 0.146 32.075
14.7178 0.547 0.144 32.3039
14.8199 0.403 0.143 32.533
14.9219 0.261 0.141 32.7619
15.024 -0.059 0.139 32.9911
15.1261 0.141 0.139 33.2204
15.2282 0.22 0.138 33.4499
15.3302 -0.265 0.136 33.6792
15.4323 0.069 0.135 33.9089
15.5344 0.106 0.134 34.1387
15.6364 0.028 0.133 34.3683
15.7385 -0.035 0.133 34.5984
15.8406 0.182 0.133 34.8285
15.9427 0.666 0.135 35.0587
16.0447 1.402 0.137 35.2889
16.1468 0.981 0.136 35.5193
16.2489 0.684 0.135 35.7499
16.351 1.855 0.138 35.9807
16.453 12.589 0.161 36.2113
16.5551 35.849 0.203 36.4422
16.6572 16.115 0.168 36.6733
16.7593 1.311 0.136 36.9045
16.8613 1.028 0.135 37.1357
16.9634 0.062 0.133 37.3671
17.0655 3.651 0.141 37.5987
17.1676 5.882 0.146 37.8304
17.2696 20.153 0.174 38.062
17.3717 9.922 0.154 38.294
17.4738 0.364 0.131 38.5261
17.5759 -0.059 0.13 38.7584
17.6779 0.297 0.13 38.9905
17.78 0.088 0.129 39.223
17.8821 0.157 0.129 39.4557
17.9842 0.179 0.129 39.6885
18.0862 -0.159 0.127 39.9212
18.1883 0.204 0.128 40.1542
18.2904 0.102 0.127 40.3874
18.3925 -0.172 0.126 40.6208
18.4945 0.161 0.126 40.854
18.5966 0.227 0.126 41.0877
18.6987 0.089 0.125 41.3214
18.8007 -0.007 0.124 41.5551
18.9028 -0.309 0.122 41.7892
19.0049 -0.145 0.122 42.0234
19.107 0.166 0.123 42.2578
19.209 1.592 0.126 42.492
19.3111 2.871 0.129 42.7267
19.4132 5.208 0.134 42.9615
19.5153 5.096 0.134 43.1965
19.6173 4.07 0.131 43.4314
19.7194 4.35 0.131 43.6667
19.8215 14.063 0.153 43.9021
19.9236 86.802 0.265 44.1377
20.0256 43.005 0.204 44.3732
20.1277 8.837 0.139 44.6091
20.2298 1.275 0.119 44.8452
20.3319 0.028 0.115 45.0814
20.4339 0.207 0.115 45.3176
20.536 -0.031 0.113 45.5542
20.6381 -0.114 0.112 45.7909
20.7402 -0.111 0.111 46.0278
20.8422 0.031 0.111 46.2647
20.9443 -0.147 0.11 46.5019
21.0464 0.438 0.112 46.7393
21.1485 0.473 0.112 46.9769
21.2505 0.878 0.113 47.2145
21.3526 0.643 0.112 47.4524
21.4547 0.368 0.11 47.6905
21.5567 0.722 0.111 47.9286
21.6588 5.424 0.124 48.1671
21.7609 10.53 0.136 48.4057
21.863 8.546 0.131 48.6446
21.965 0.763 0.109 48.8834
22.0671 0.052 0.106 49.1226
22.1692 0.038 0.105 49.362
22.2713 0.126 0.105 49.6016
22.3733 0.006 0.105 49.8411
22.4754 0.196 0.105 50.0811
22.5775 0.135 0.104 50.3212
22.6796 0.044 0.103 50.5616
22.7816 0.038 0.103 50.8019
22.8837 -0.121 0.102 51.0426
22.9858 0.114 0.102 51.2836
23.0879 0.161 0.102 51.5247
23.1899 -0.042 0.101 51.7658
23.292 -0.036 0.1 52.0074
23.3941 0.002 0.1 52.2491
23.4962 -0.079 0.099 52.4911
23.5982 0.189 0.1 52.733
23.7003 -0.116 0.099 52.9754
23.8024 0.086 0.099 53.218
23.9045 -0.087 0.098 53.4608
24.0065 -0.125 0.098 53.7035
24.1086 0.154 0.098 53.9468
24.2107 0.169 0.098 54.1902
24.3127 -0.061 0.097 54.4336
24.4148 0.079 0.098 54.6775
24.5169 0.052 0.097 54.9216
24.619 -0.026 0.097 55.1659
24.721 0.329 0.098 55.4102
24.8231 0.05 0.097 55.655
24.9252 0.202 0.097 55.9
25.0273 -0.033 0.096 56.1452
25.1293 -0.198 0.096 56.3905
25.2314 0.485 0.099 56.6362
25.3335 0.624 0.1 56.8821
25.4356 0.404 0.1 57.1283
25.5376 0.651 0.101 57.3744
25.6397 0.011 0.1 57.6211
25.7418 0.687 0.102 57.868
25.8439 5.037 0.116 58.1151
25.9459 14.479 0.14 58.3622
26.048 5.815 0.118 58.6099
26.1501 3.944 0.113 58.8578
26.2522 -0.179 0.101 59.1059
26.3542 0.26 0.103 59.354
26.4563 1.431 0.107 59.6027
26.5584 3.181 0.112 59.8516
26.6605 6.142 0.121 60.1007
26.7625 8.674 0.128 60.3499
26.8646 12.228 0.137 60.5996
26.9667 14.227 0.141 60.8495
27.0688 14.978 0.143 61.0997
27.1708 16.035 0.146 61.3499
27.2729 13.7 0.14 61.6007
27.375 11.303 0.134 61.8517
27.477 8.726 0.128 62.1028
27.5791 5.824 0.12 62.3543
27.6812 4.128 0.115 62.6062
27.7833 3.4 0.113 62.8583
27.8853 2.635 0.111 63.1105
27.9874 2.733 0.111 63.3632
28.0895 2.513 0.11 63.6162
28.1916 6.074 0.119 63.8695
28.2936 23.396 0.159 64.1228
28.3957 15.422 0.142 64.3767
28.4978 25.591 0.163 64.6309
28.5999 9.311 0.126 64.8853
28.7019 4.721 0.113 65.1398
28.804 0.139 0.098 65.3949
28.9061 0.006 0.097 65.6503
29.0082 0.063 0.097 65.906
29.1102 0.715 0.099 66.1617
29.2123 0.765 0.099 66.4181
29.3144 1.047 0.1 66.6747
29.4165 0.836 0.099 66.9316
29.5185 0.954 0.1 67.1886
29.6206 1.401 0.101 67.4462
29.7227 7.839 0.12 67.7042
29.8248 10.5 0.127 67.9624
29.9268 5.885 0.114 68.2207
30.0289 3.231 0.106 68.4797
30.131 0.313 0.096 68.7389
30.233 0.104 0.094 68.9982
30.3351 0.02 0.094 69.2582
30.4372 -0.214 0.093 69.5185
30.5393 0.197 0.095 69.7791
30.6413 0.315 0.095 70.0398
30.7434 0.627 0.097 70.3011
30.8455 1.387 0.099 70.5628
30.9476 1.984 0.101 70.8249
31.0496 2.747 0.103 71.087
31.1517 3.496 0.106 71.3498
31.2538 3.618 0.106 71.6129
31.3559 4.324 0.108 71.8764
31.4579 3.805 0.106 72.14
31.56 3.081 0.103 72.4043
31.6621 2.482 0.101 72.6689
31.7642 1.449 0.097 72.934
31.8662 0.721 0.094 73.1991
31.9683 0.19 0.092 73.4649
32.0704 -0.118 0.09 73.7311
32.1725 -0.09 0.09 73.9977
32.2745 0.125 0.091 74.2644
32.3766 0.155 0.091 74.5318
32.4787 0.078 0.091 74.7996
32.5808 0.124 0.091 75.0678
32.6828 0.38 0.092 75.3362
32.7849 0.582 0.093 75.6052
32.887 0.859 0.094 75.8746
32.989 1.229 0.095 76.1443
33.0911 3.924 0.104 76.4146
33.1932 3.876 0.104 76.6853
33.2953 5.201 0.108 76.9565
33.3973 6.29 0.111 77.2278
33.4994 7.358 0.114 77.4999
33.6015 3.268 0.101 77.7724
33.7036 2.825 0.099 78.0453
33.8056 0.507 0.091 78.3185
33.9077 0.169 0.089 78.5923
34.0098 0.075 0.089 78.8666
34.1119 0.002 0.089 79.1414
34.2139 0.13 0.09 79.4164
34.316 0.062 0.09 79.6921
34.4181 -0.143 0.09 79.9684
34.5202 0.094 0.092 80.245
34.6171 0 0.093 80.5081